File: tutorials/data/CP_SSB.txt
EC-Lab ASCII FILE
Nb header lines : 62

Chronopotentiometry

Run on channel : 8 (SN 12288)
User :
Electrode connection : standard
Potential control : Ewe
Ewe ctrl range : min = 0.00 V, max = 5.00 V
Ewe,I filtering : 50 kHz
Safety Limits :
	Do not start on E overload
Channel : Grounded
Acquisition started on : 05/17/2024 14:09:11.952
Loaded Setting File :  NONE
Saved on :
	File : HybridGEIS_0.005C_03_CP_C08.mpr
	Directory : C:\Users\akzmess010\Documents\EC-Lab\Data\JakeHuang\240506_PC05_NCM-LPSCl_baseline\hybrid\
	Host : 192.109.209.2
Device : VMP-300 (SN 0451)
Address : 192.109.209.30
EC-LAB for windows v11.50 (software)
Internet server v11.50 (firmware)
Command interpretor v11.50 (firmware)
Electrode material :
Initial state :
Electrolyte :
Comments :
Mass of active material : 7.826 mg
 at x = 0.000
Molecular weight of active material (at x = 0) : 28.000 g/mol
Atomic weight of intercalated ion : 7.000 g/mol
Acquisition started at : xo = 0.000
Number of e- transfered per intercalated ion : 1
for DX = 1, DQ = 7.491 mA.h
Battery capacity : 1.680 mA.h
Cable : special
Reference electrode : SCE Saturated Calomel Electrode (0.241 V)
Electrode surface area : 0.001 cm²
Characteristic mass : 7.826 mg
Volume (V) : 0.001 cm³
Cycle Definition : Charge/Discharge alternance
Ns                  0                   1                   2                   3                   4                   5                   6                   7
Is                  0.000               8.400               -8.400              8.400               -8.400              8.400               -8.400              0.000
unit Is             mA                  µA                  µA                  µA                  µA                  µA                  µA                  µA
vs.                 <None>              <None>              <None>              <None>              <None>              <None>              <None>              <None>
ts (h:m:s)          0:00:3.0000         0:00:0.1000         0:00:0.1000         0:00:1.0000         0:00:1.0000         0:00:10.0000        0:00:10.0000        0:00:5.0000
EM (V)              pass                4.500               0.200               4.500               0.200               4.500               0.200               pass
dQM                 0.000               233.333             233.333             2.333               2.333               23.333              23.333              0.000
unit dQM            mA.h                pA.h                pA.h                nA.h                nA.h                nA.h                nA.h                mA.h
record              Ewe                 Ewe                 Ewe                 Ewe                 Ewe                 Ewe                 Ewe                 Ewe
dEs (mV)            0.00                0.00                0.00                0.00                0.00                0.00                0.00                0.00
dts (s)             0.0010              0.0010              0.0010              0.0010              0.0010              0.0010              0.0010              0.0010
E range min (V)     0.000               0.000               0.000               0.000               0.000               0.000               0.000               0.000
E range max (V)     5.000               5.000               5.000               5.000               5.000               5.000               5.000               5.000
I Range             100 µA              100 µA              100 µA              100 µA              100 µA              100 µA              100 µA              100 µA
Bandwidth           8                   8                   8                   8                   8                   8                   8                   8
goto Ns'            0                   0                   0                   0                   0                   0                   0                   0
nc cycles           0                   0                   0                   0                   0                   0                   0                   0

time/s	Ewe/V	I/mA	I Range		step time/s	Ns
19.8948	2.92315	-1.93068e-05	41	0	0.000000000000000E+000	0
20.0188	2.9236	-1.80686e-05	41	0	20.0188	0
20.1428	2.92357	-1.91495e-05	41	0	20.1428	0
20.2668	2.92357	-1.89548e-05	41	0	20.2668	0
20.3908	2.92356	-1.96229e-05	41	0	20.3908	0
20.5148	2.92358	-1.90884e-05	41	0	20.5148	0
20.6388	2.92361	-1.96573e-05	41	0	20.6388	0
20.7628	2.92359	-1.87067e-05	41	0	20.7628	0
20.8868	2.9236	-1.87105e-05	41	0	20.8868	0
21.0108	2.92359	-1.83172e-05	41	0	21.0108	0
21.1348	2.92358	-1.88976e-05	41	0	21.1348	0
21.2588	2.92362	-1.83287e-05	41	0	21.2588	0
21.3828	2.92359	-1.81149e-05	41	0	21.3828	0
21.5068	2.92359	-1.82752e-05	41	0	21.5068	0
21.6308	2.9235	-1.8489e-05	41	0	21.6308	0
21.7548	2.92363	-1.87143e-05	41	0	21.7548	0
21.8788	2.92358	-1.73742e-05	41	0	21.8788	0
22.0028	2.92354	-1.81607e-05	41	0	22.0028	0
22.1268	2.92356	-1.78896e-05	41	0	22.1268	0
22.2508	2.92359	-1.76224e-05	41	0	22.2508	0
22.3748	2.9236	-1.69466e-05	41	0	22.3748	0
22.4988	2.92359	-1.7023e-05	41	0	22.4988	0
22.6228	2.9236	-1.80042e-05	41	0	22.6228	0
22.7468	2.92359	-1.72712e-05	41	0	22.7468	0
22.8708	2.92357	-1.9035e-05	41	0	22.8708	0
22.994	2.93247	0.0083814	41	0	0.099	1
23.1164	2.92833	0.00838289	41	0	0.021	3
23.2404	2.93275	0.00838269	41	0	0.145	3
23.3644	2.93378	0.00838327	41	0	0.269	3
23.4884	2.93427	0.00838384	41	0	0.393	3
23.6124	2.93466	0.00838338	41	0	0.517	3
23.7364	2.93501	0.00838415	41	0	0.641	3
23.8604	2.9352	0.0083835	41	0	0.765	3
23.9844	2.93537	0.00838372	41	0	0.889	3
24.1076	2.92409	-0.00842444	41	0	0.012	4
24.2316	2.91693	-0.00842391	41	0	0.136	4
24.3556	2.9151	-0.00842349	41	0	0.26	4
24.4796	2.91415	-0.0084233	41	0	0.384	4
24.6036	2.91347	-0.00842349	41	0	0.508	4
24.7276	2.91293	-0.00842345	41	0	0.632	4
24.8516	2.91255	-0.0084241	41	0	0.756	4
24.9756	2.91223	-0.00842444	41	0	0.88	4
25.0988	2.92022	0.00838361	41	0	0.003	5
25.2228	2.93077	0.00838506	41	0	0.127	5
25.3468	2.93251	0.00838437	41	0	0.251	5
25.4708	2.93335	0.00838487	41	0	0.375	5
25.5948	2.93397	0.00838502	41	0	0.499	5
25.7188	2.93437	0.00838479	41	0	0.623	5
25.8428	2.93468	0.00838353	41	0	0.747	5
25.9668	2.93495	0.00838334	41	0	0.871	5
26.0908	2.93521	0.00838445	41	0	0.995	5
26.2148	2.93537	0.00838361	41	0	1.119	5
26.3388	2.93553	0.00838499	41	0	1.243	5
26.4628	2.93569	0.00838399	41	0	1.367	5
26.5868	2.93587	0.00838434	41	0	1.491	5
26.7108	2.93596	0.00838498	41	0	1.615	5
26.8348	2.93602	0.00838323	41	0	1.739	5
26.9588	2.93617	0.00838338	41	0	1.863	5
27.0828	2.93623	0.00838323	41	0	1.987	5
27.2068	2.93635	0.00838369	41	0	2.111	5
27.3308	2.93642	0.00838369	41	0	2.235	5
27.4548	2.93647	0.00838369	41	0	2.359	5
27.5788	2.93655	0.00838373	41	0	2.483	5
27.7028	2.93664	0.00838342	41	0	2.607	5
27.8268	2.93671	0.00838449	41	0	2.731	5
27.9508	2.93674	0.00838353	41	0	2.855	5
28.0748	2.93679	0.00838342	41	0	2.979	5
28.1988	2.93687	0.00838384	41	0	3.103	5
28.3228	2.93693	0.00838392	41	0	3.227	5
28.4468	2.93696	0.008383	41	0	3.351	5
28.5708	2.93703	0.00838552	41	0	3.475	5
28.6948	2.93708	0.0083833	41	0	3.599	5
28.8188	2.93711	0.00838357	41	0	3.723	5
28.9428	2.93713	0.00838376	41	0	3.847	5
29.0668	2.93717	0.00838292	41	0	3.971	5
29.1908	2.93728	0.00838365	41	0	4.095	5
29.3148	2.93727	0.00838262	41	0	4.219	5
29.4388	2.93735	0.00838182	41	0	4.343	5
29.5628	2.93737	0.00838239	41	0	4.467	5
29.6868	2.93744	0.00838258	41	0	4.591	5
29.8108	2.93747	0.00838227	41	0	4.715	5
29.9348	2.93744	0.00838311	41	0	4.839	5
30.0588	2.93746	0.00838124	41	0	4.963	5
30.1828	2.93751	0.008383	41	0	5.087	5
30.3068	2.93758	0.00838155	41	0	5.211	5
30.4308	2.93757	0.00838193	41	0	5.335	5
30.5548	2.93768	0.00838266	41	0	5.459	5
30.6788	2.93769	0.008383	41	0	5.583	5
30.8028	2.93769	0.0083843	41	0	5.707	5
30.9268	2.93772	0.0083825	41	0	5.831	5
31.0508	2.93775	0.00838403	41	0	5.955	5
31.1748	2.93777	0.0083838	41	0	6.079	5
31.2988	2.93779	0.00838311	41	0	6.203	5
31.4228	2.93786	0.00838296	41	0	6.327	5
31.5468	2.93786	0.00838369	41	0	6.451	5
31.6708	2.93787	0.00838258	41	0	6.575	5
31.7948	2.93791	0.00838266	41	0	6.699	5
31.9188	2.93796	0.00838224	41	0	6.823	5
32.0428	2.93797	0.00838266	41	0	6.947	5
32.1668	2.93803	0.00838277	41	0	7.071	5
32.2908	2.93801	0.00838132	41	0	7.195	5
32.4148	2.93804	0.00838224	41	0	7.319	5
32.5388	2.93803	0.00838151	41	0	7.443	5
32.6628	2.93804	0.00838159	41	0	7.567	5
32.7868	2.93808	0.00838205	41	0	7.691	5
32.9108	2.93812	0.0083814	41	0	7.815	5
33.0348	2.93813	0.00838155	41	0	7.939	5
33.1588	2.93818	0.00838128	41	0	8.063	5
33.2828	2.9382	0.00838197	41	0	8.187	5
33.4068	2.9382	0.00838224	41	0	8.311	5
33.5308	2.93825	0.00838227	41	0	8.435	5
33.6548	2.93822	0.00838235	41	0	8.559	5
33.7788	2.93826	0.00838151	41	0	8.683	5
33.9028	2.93827	0.00838174	41	0	8.807	5
34.0268	2.93833	0.0083822	41	0	8.931	5
34.1508	2.93831	0.00838189	41	0	9.055	5
34.2748	2.93832	0.00838193	41	0	9.179	5
34.3988	2.93837	0.00838189	41	0	9.303	5
34.5228	2.93839	0.00838208	41	0	9.427	5
34.6468	2.93837	0.00838178	41	0	9.551	5
34.7708	2.93845	0.00838327	41	0	9.675	5
34.8948	2.93845	0.00838266	41	0	9.799	5
35.0188	2.93845	0.00838185	41	0	9.923	5
35.142	2.92329	-0.0084267	41	0	0.046	6
35.266	2.91955	-0.00842548	41	0	0.17	6
35.39	2.91798	-0.00842727	41	0	0.294	6
35.514	2.91703	-0.00842574	41	0	0.418	6
35.638	2.91627	-0.00842597	41	0	0.542	6
35.762	2.91574	-0.0084257	41	0	0.666	6
35.886	2.9153	-0.00842567	41	0	0.79	6
36.01	2.91489	-0.00842616	41	0	0.914	6
36.134	2.91459	-0.00842601	41	0	1.038	6
36.258	2.91423	-0.00842605	41	0	1.162	6
36.382	2.91399	-0.00842635	41	0	1.286	6
36.506	2.91375	-0.0084236	41	0	1.41	6
36.63	2.91344	-0.00842498	41	0	1.534	6
36.754	2.91331	-0.00842559	41	0	1.658	6
36.878	2.91317	-0.00842567	41	0	1.782	6
37.002	2.91296	-0.00842544	41	0	1.906	6
37.126	2.91276	-0.0084257	41	0	2.03	6
37.25	2.91265	-0.00842418	41	0	2.154	6
37.374	2.91248	-0.0084246	41	0	2.278	6
37.498	2.91233	-0.00842513	41	0	2.402	6
37.622	2.91221	-0.00842559	41	0	2.526	6
37.746	2.91204	-0.00842494	41	0	2.65	6
37.87	2.91195	-0.00842555	41	0	2.774	6
37.994	2.91181	-0.00842662	41	0	2.898	6
38.118	2.91171	-0.00842567	41	0	3.022	6
38.242	2.9116	-0.00842521	41	0	3.146	6
38.366	2.91153	-0.00842517	41	0	3.27	6
38.49	2.91141	-0.00842582	41	0	3.394	6
38.614	2.91136	-0.00842536	41	0	3.518	6
38.738	2.91125	-0.00842612	41	0	3.642	6
38.862	2.91116	-0.00842486	41	0	3.766	6
38.986	2.91109	-0.00842563	41	0	3.89	6
39.11	2.91098	-0.00842589	41	0	4.014	6
39.234	2.91093	-0.00842593	41	0	4.138	6
39.358	2.91086	-0.00842467	41	0	4.262	6
39.482	2.91079	-0.00842483	41	0	4.386	6
39.606	2.91065	-0.00842517	41	0	4.51	6
39.73	2.91063	-0.00842662	41	0	4.634	6
39.854	2.91058	-0.00842574	41	0	4.758	6
39.978	2.91054	-0.00842589	41	0	4.882	6
40.102	2.91042	-0.00842483	41	0	5.006	6
40.226	2.91036	-0.0084246	41	0	5.13	6
40.35	2.91036	-0.00842463	41	0	5.254	6
40.474	2.91021	-0.00842631	41	0	5.378	6
40.598	2.91022	-0.00842727	41	0	5.502	6
40.722	2.91011	-0.00842574	41	0	5.626	6
40.846	2.91011	-0.00842662	41	0	5.75	6
40.97	2.91003	-0.00842578	41	0	5.874	6
41.094	2.90994	-0.00842712	41	0	5.998	6
41.218	2.90991	-0.00842418	41	0	6.122	6
41.342	2.90987	-0.00842567	41	0	6.246	6
41.466	2.90984	-0.00842567	41	0	6.37	6
41.59	2.90978	-0.00842567	41	0	6.494	6
41.714	2.90974	-0.00842456	41	0	6.618	6
41.838	2.90964	-0.00842509	41	0	6.742	6
41.962	2.90967	-0.00842536	41	0	6.866	6
42.086	2.90963	-0.00842517	41	0	6.99	6
42.21	2.90953	-0.00842448	41	0	7.114	6
42.334	2.90952	-0.00842433	41	0	7.238	6
42.458	2.90943	-0.00842536	41	0	7.362	6
42.582	2.90943	-0.0084257	41	0	7.486	6
42.706	2.90935	-0.00842418	41	0	7.61	6
42.83	2.90933	-0.00842448	41	0	7.734	6
42.954	2.90933	-0.0084254	41	0	7.858	6
43.078	2.90927	-0.00842345	41	0	7.982	6
43.202	2.90923	-0.00842517	41	0	8.106	6
43.326	2.90922	-0.0084244	41	0	8.23	6
43.45	2.90915	-0.00842456	41	0	8.354	6
43.574	2.90911	-0.00842509	41	0	8.478	6
43.698	2.90908	-0.00842517	41	0	8.602	6
43.822	2.90906	-0.00842383	41	0	8.726	6
43.946	2.90903	-0.00842402	41	0	8.85	6
44.07	2.90902	-0.00842444	41	0	8.974	6
44.194	2.90896	-0.00842559	41	0	9.098	6
44.318	2.90888	-0.00842498	41	0	9.222	6
44.442	2.90893	-0.00842414	41	0	9.346	6
44.566	2.90885	-0.00842574	41	0	9.47	6
44.69	2.90877	-0.00842609	41	0	9.594	6
44.814	2.90881	-0.00842567	41	0	9.718	6
44.938	2.9087	-0.00842513	41	0	9.842	6
45.062	2.90872	-0.00842517	41	0	9.966	6
45.1852	2.91799	-1.54725e-05	41	0	10.0892	7
45.3092	2.91937	-1.74086e-05	41	0	10.2132	7
45.4332	2.91998	-1.69963e-05	41	0	10.3372	7
45.5572	2.92046	-1.6435e-05	41	0	10.4612	7
45.6812	2.92069	-1.6374e-05	41	0	10.5852	7
45.8052	2.92098	-1.70535e-05	41	0	10.7092	7
45.9292	2.92112	-1.66069e-05	41	0	10.8332	7
46.0532	2.92126	-1.60647e-05	41	0	10.9572	7
46.1772	2.92139	-1.63091e-05	41	0	11.0812	7
46.3012	2.92157	-1.64656e-05	41	0	11.2052	7
46.4252	2.92165	-1.63052e-05	41	0	11.3292	7
46.5492	2.92179	-1.74391e-05	41	0	11.4532	7
46.6732	2.92185	-1.58815e-05	41	0	11.5772	7
46.7972	2.92192	-1.56638e-05	41	0	11.7012	7
46.9212	2.92199	-1.64198e-05	41	0	11.8252	7
47.0452	2.9221	-1.66565e-05	41	0	11.9492	7
47.1692	2.92208	-1.61831e-05	41	0	12.0732	7
47.2932	2.92216	-1.57364e-05	41	0	12.1972	7
47.4172	2.92225	-1.55951e-05	41	0	12.3212	7
47.5412	2.9223	-1.57937e-05	41	0	12.4452	7
47.6652	2.92235	-1.63281e-05	41	0	12.5692	7
47.7892	2.92239	-1.60418e-05	41	0	12.6932	7
47.9132	2.92247	-1.68016e-05	41	0	12.8172	7
48.0372	2.92247	-1.48316e-05	41	0	12.9412	7
48.1612	2.92251	-1.65038e-05	41	0	13.0652	7
48.2852	2.92256	-1.57593e-05	41	0	13.1892	7
48.4092	2.92253	-1.52477e-05	41	0	13.3132	7
48.5332	2.92258	-1.61487e-05	41	0	13.4372	7
48.6572	2.92263	-1.67061e-05	41	0	13.5612	7
48.7812	2.92266	-1.73399e-05	41	0	13.6852	7
48.9052	2.9227	-1.66107e-05	41	0	13.8092	7
49.0292	2.92264	-1.55149e-05	41	0	13.9332	7
49.1532	2.92273	-1.63167e-05	41	0	14.0572	7
49.2772	2.9227	-1.60647e-05	41	0	14.1812	7
49.4012	2.92278	-1.55608e-05	41	0	14.3052	7
49.5252	2.92283	-1.58967e-05	41	0	14.4292	7
49.6492	2.92284	-1.72597e-05	41	0	14.5532	7
49.7732	2.92287	-1.65381e-05	41	0	14.6772	7
49.8972	2.92284	-1.56333e-05	41	0	14.8012	7
50.0212	2.92285	-1.63587e-05	41	0	14.9252	7
50.096	2.92289	-1.60914e-05	41	0	15	7